wavelength (nm), n, k
1.30510717e2, 4.48000000e-1, 1.24800000
1.31201250e2, 4.61562000e-1, 1.25593700
1.31899129e2, 4.78000000e-1, 1.26200000
1.32604472e2, 4.93687000e-1, 1.26781200
1.33317399e2, 5.05000000e-1, 1.27500000
1.34038034e2, 5.04375000e-1, 1.28725000
1.34766501e2, 5.00000000e-1, 1.30000000
1.35502930e2, 4.97000000e-1, 1.30712500
1.36247452e2, 4.97000000e-1, 1.31700000
1.37000200e2, 5.05750000e-1, 1.34025000
1.37761313e2, 5.16000000e-1, 1.36400000
1.38530929e2, 5.21188000e-1, 1.37625000
1.39309192e2, 5.25000000e-1, 1.38500000
1.40096250e2, 5.29437000e-1, 1.39206200
1.40892251e2, 5.33000000e-1, 1.40400000
1.41697350e2, 5.33000000e-1, 1.43443800
1.42511703e2, 5.35000000e-1, 1.46400000
1.43335470e2, 5.45438000e-1, 1.47287500
1.44168815e2, 5.59000000e-1, 1.47600000
1.45011908e2, 5.73375000e-1, 1.48150000
1.45864919e2, 5.86000000e-1, 1.49000000
1.46728025e2, 5.91063000e-1, 1.50675000
1.47601406e2, 5.96000000e-1, 1.52600000
1.48485247e2, 6.09062000e-1, 1.54437500
1.49379736e2, 6.22000000e-1, 1.56000000
1.50285068e2, 6.27313000e-1, 1.56787500
1.51201441e2, 6.31000000e-1, 1.57400000
1.52129057e2, 6.37000000e-1, 1.58300000
1.53068125e2, 6.44000000e-1, 1.59400000
1.54018859e2, 6.52563000e-1, 1.60918700
1.54981477e2, 6.61000000e-1, 1.62400000
1.55956203e2, 6.67438000e-1, 1.63350000
1.56943267e2, 6.73000000e-1, 1.64100000
1.57942906e2, 6.77688000e-1, 1.64731300
1.58955361e2, 6.83000000e-1, 1.65500000
1.59980879e2, 6.91188000e-1, 1.66756300
1.61019716e2, 7.00000000e-1, 1.68300000
1.62072132e2, 7.06500000e-1, 1.70068700
1.63138396e2, 7.15000000e-1, 1.72000000
1.64218783e2, 7.30687000e-1, 1.74112500
1.65313575e2, 7.48000000e-1, 1.76100000
1.66423062e2, 7.63063000e-1, 1.77531300
1.67547542e2, 7.76000000e-1, 1.78800000
1.68687321e2, 7.84000000e-1, 1.80181300
1.69842714e2, 7.92000000e-1, 1.81600000
1.71014043e2, 8.05063000e-1, 1.83118800
1.72201641e2, 8.20000000e-1, 1.84600000
1.73405848e2, 8.35687000e-1, 1.85862500
1.74627016e2, 8.51000000e-1, 1.87100000
1.75865505e2, 8.64000000e-1, 1.88525000
1.77121688e2, 8.76000000e-1, 1.89900000
1.78395944e2, 8.87750000e-1, 1.91012500
1.79688669e2, 8.99000000e-1, 1.92000000
1.81000265e2, 9.10063000e-1, 1.92800000
1.82331149e2, 9.20000000e-1, 1.93800000
1.83681750e2, 9.26250000e-1, 1.95637500
1.85052509e2, 9.34000000e-1, 1.97500000
1.86443882e2, 9.49687000e-1, 1.98556200
1.87856335e2, 9.67000000e-1, 1.99500000
1.89290353e2, 9.80938000e-1, 2.00931200
1.90746433e2, 9.94000000e-1, 2.02300000
1.92225087e2, 1.00687500, 2.03056300
1.93726846e2, 1.02000000, 2.03800000
1.95252254e2, 1.03437500, 2.05087500
1.96801875e2, 1.04900000, 2.06500000
1.98376290e2, 1.06356300, 2.07781300
1.99976099e2, 1.07700000, 2.09000000
2.01601921e2, 1.08662500, 2.10025000
2.03254396e2, 1.09700000, 2.11200000
2.04934184e2, 1.11293700, 2.12975000
2.06641969e2, 1.13100000, 2.14900000
2.08378456e2, 1.14956300, 2.16718800
2.10144375e2, 1.16800000, 2.18300000
2.11940481e2, 1.18531300, 2.19150000
2.13767554e2, 1.20100000, 2.20100000
2.15626402e2, 1.21312500, 2.22125000
2.17517862e2, 1.22500000, 2.24300000
2.19442799e2, 1.23950000, 2.25818700
2.21402109e2, 1.25600000, 2.27300000
2.23396723e2, 1.27550000, 2.29337500
2.25427602e2, 1.29600000, 2.31200000
2.27495745e2, 1.31493800, 2.32062500
2.29602188e2, 1.33500000, 2.32800000
2.31748002e2, 1.35975000, 2.34118800
2.33934304e2, 1.38400000, 2.35700000
2.36162250e2, 1.40331300, 2.37593800
2.38433041e2, 1.41900000, 2.39400000
2.40747925e2, 1.42950000, 2.40612500
2.43108199e2, 1.43900000, 2.41600000
2.45515210e2, 1.45181200, 2.42356200
2.47970363e2, 1.46600000, 2.43500000
2.50475114e2, 1.48075000, 2.45837500
2.53030982e2, 1.49700000, 2.48800000
2.55639549e2, 1.51475000, 2.52112500
2.58302461e2, 1.53600000, 2.55700000
2.61021434e2, 1.56412500, 2.59437500
2.63798258e2, 1.59500000, 2.63200000
2.66634798e2, 1.62437500, 2.66912500
2.69533003e2, 1.65600000, 2.70300000
2.72494904e2, 1.69156200, 2.72750000
2.75522625e2, 1.73300000, 2.75200000
2.78618385e2, 1.78212500, 2.78700000
2.81784503e2, 1.84100000, 2.82300000
2.85023405e2, 1.91568800, 2.85581300
2.88337631e2, 1.99600000, 2.88000000
2.91729838e2, 2.07437500, 2.88612500
2.95202813e2, 2.14900000, 2.88200000
2.98759473e2, 2.21624900, 2.87131300
3.02402881e2, 2.27400000, 2.85700000
3.06136250e2, 2.31481200, 2.84287500
3.09962953e2, 2.35100000, 2.83000000
3.13886535e2, 2.39481300, 2.82143800
3.17910721e2, 2.43900000, 2.81500000
3.22039432e2, 2.47962500, 2.80893800
3.26276793e2, 2.51900000, 2.80500000
3.30627150e2, 2.55762500, 2.80481200
3.35095085e2, 2.59700000, 2.80700000
3.39685428e2, 2.63700000, 2.81168700
3.44403281e2, 2.68300000, 2.81600000
3.49254032e2, 2.74193800, 2.81481300
3.54243375e2, 2.80900000, 2.81500000
3.59377337e2, 2.88100000, 2.82962500
3.64662298e2, 2.96000000, 2.83500000
3.70105019e2, 3.05187500, 2.80787500
3.75712671e2, 3.14200000, 2.76000000
3.81492866e2, 3.21793700, 2.69062500
3.87453692e2, 3.27900000, 2.61400000
3.93603750e2, 3.31693700, 2.54656300
3.99952198e2, 3.34200000, 2.48100000
4.06508791e2, 3.36262500, 2.41343800
4.13283938e2, 3.37600000, 2.35000000
4.20288750e2, 3.38037500, 2.29787500
4.27535108e2, 3.38100000, 2.25000000
4.35035724e2, 3.38443700, 2.20131200
4.42804219e2, 3.38500000, 2.15300000
4.50855205e2, 3.38006200, 2.10281300
4.59204375e2, 3.36700000, 2.05600000
4.67868609e2, 3.33925000, 2.01393700
4.76866082e2, 3.30600000, 1.98600000
4.86216397e2, 3.27168800, 1.98600000
4.95940725e2, 3.24400000, 2.00200000
5.06061964e2, 3.23512500, 2.03256200
5.16604922e2, 3.23600000, 2.06000000
5.27596516e2, 3.24356200, 2.05781200
5.39066006e2, 3.25200000, 2.05100000
5.51045250e2, 3.25262500, 2.05818700
5.63569006e2, 3.25100000, 2.07200000
5.76675262e2, 3.24906200, 2.09193700
5.90405625e2, 3.24900000, 2.11600000
6.04805762e2, 3.25350000, 2.14056300
6.19925906e2, 3.26300000, 2.17000000
6.35821443e2, 3.27750000, 2.21056200
6.52553586e2, 3.30100000, 2.25300000
6.70190169e2, 3.33962500, 2.28806300
6.88806563e2, 3.38700000, 2.32200000
7.08486750e2, 3.43850000, 2.36018800
7.29324596e2, 3.49500000, 2.39600000
7.51425341e2, 3.55525000, 2.42331300
7.74907383e2, 3.62100000, 2.44600000
7.99904395e2, 3.69425000, 2.46850000
8.26567875e2, 3.77300000, 2.48300000
8.55070216e2, 3.85862500, 2.48112500
8.85608438e2, 3.94300000, 2.46900000
9.18408750e2, 4.01687500, 2.44906300
9.53732164e2, 4.08500000, 2.42400000
9.91881450e2, 4.15075000, 2.39850000
1.03320984e3, 4.20900000, 2.36900000
1.07813201e3, 4.25131300, 2.33668800
1.12713801e3, 4.29100000, 2.29200000
1.18081125e3, 4.35693700, 2.22006200
1.23985181e3, 4.39400000, 2.13800000
1.30510717e3, 4.33843800, 2.04587500
1.37761313e3, 4.24500000, 1.98000000
1.45864919e3, 4.14968700, 1.98325000
1.54981477e3, 4.04500000, 2.03600000
1.65313575e3, 3.93206300, 2.12862500
1.77121688e3, 3.82100000, 2.27400000
1.90746433e3, 3.72312500, 2.49162500
2.06641969e3, 3.63600000, 2.75200000
2.25427602e3, 3.55668700, 3.00493700
2.47970363e3, 3.49800000, 3.33200000
2.75522625e3, 3.45737500, 3.79662500
3.09962953e3, 3.47800000, 4.40300000
3.54243375e3, 3.57993700, 5.15331300
4.13283938e3, 3.83000000, 6.11700000
4.95940725e3, 4.32787500, 7.35900100
6.19925906e3, 4.99500000, 8.89500000
8.26567875e3, 5.79737500, 1.07530000e1
1.23985181e4, 6.70100100, 1.29610000e1
2.47970363e4, 1.23600000e1, 2.53820000e1
